Sample:                                                                 
Filename: C:\Deimos\b1natU_1_p3.Chn
File created or changed:   11/3/2022
No.of channels: 16100
Measurement date: 01/Nov/22     16:09
Evaluated : 11/18/2022 1:11:50 PM
Live time: 86354.0 s   Real time: 86400.0 s    Dead time:  0.05 %
Counts total:   2864648    Input counts/sec:     33
            Satellite peaks:
s10: 0.000  s11: 0.000  s12: 0.000
d10:   2.5  d11:   4.0  d12:  10.0
s20: 0.000  s21: 0.000  s22: 0.000
d20:   0.0  d21:   0.0  d22:   0.0
base: 0.00000

            ENERGY CALIBRATION
 6.583305948078E+0000  4.926059809399E-0002  0.000000000000E+0000  0.000000000000E+0000

            FWHM CALIBRATION
 2.288496775628E+0001  1.148914090875E-0003  0.000000000000E+0000

Energy: preliminary linear calibration
FWHM: preliminary linear calibration

  channel  cherr    energy      area aerr%  fwhm chisq it left   n  lim isotope
==============================================================================
 1150.043  0.457    63.235    4103.7   6.4 25.33  1.28  12 1072 117 1340
 1387.899  3.923    74.952     840.4  21.4 37.52  0.99  46 1283 383 2182
 1510.481  2.901    80.991    1279.8  15.6 37.66  0.99  46 1283 383 2314
 1572.596  1.116    84.050    3456.4   9.0 37.73  0.99  46 1283 383 2451
 1745.392  0.093    92.562   44667.1   0.8 27.97  1.25  20 1667 272 2459
 1786.844  0.117    94.604   32520.7   0.9 28.01  1.25  20 1667 272 2906
 1864.099  0.067    98.410   60920.6   0.7 28.10  1.25  20 1667 272 2576
 2122.134  0.151   111.121   40569.1   1.1 42.11  1.94  14 2040 221 3706
 2189.952  0.301   114.462   17192.0   1.6 42.19  1.94  14 2040 221 3179
 2786.367  0.487   143.841    4627.1   6.0 27.60  1.12  26 2714 121 1646
 3184.498  0.792   163.454    2820.1   9.2 28.90  0.98  10 3111 140 1607
 3639.330  0.082   185.859   40608.2   1.0 27.82  1.11  10 3560 141 1742
 4038.336  0.492   205.514    3757.7   6.2 26.16  0.93  25 3951 155 1352
 5114.771  1.166   258.540    1985.6  11.5 34.42  1.10  14 5057 143 1467
10250.054  1.777   511.507    2063.8  10.0 60.65  0.93  12 10144 208 1864
11429.022  1.825   569.584     749.7  17.3 34.93  0.98  13 11323 187  928
12241.702  1.613   609.617     366.7  24.9 21.66  1.00  16 12134 163  506
13302.474  0.971   661.871    1436.6   8.5 37.30  0.98  12 13185 224  921
14885.284  3.459   739.841     547.4  13.8 43.63  0.86  11 14764 253  946
14944.903  0.551   742.778    3963.0   4.2 43.70  0.86  11 14764 253 1262
15395.999  0.184   764.999   12506.7   1.7 37.37  1.14  10 15273 203 1317
15659.767  3.708   777.993     305.2  20.5 34.38  0.90  29 15511 304  779
15725.931  0.612   781.252    2243.3   5.8 34.46  0.90  29 15511 304  921
