

Sample:                                                                 
Filename: C:\Deimos\b1depU_2_p3.Chn
File created or changed:   11/1/2022
No.of channels: 16100
Measurement date: 31/Oct/22     13:43
Evaluated : 11/9/2022 6:43:55 PM
Live time: 86323.0 s   Real time: 86400.0 s    Dead time:  0.09 %
Counts total:   5023429    Input counts/sec:     58
            Satellite peaks:
s10: 0.000  s11: 0.000  s12: 0.000
d10:   2.5  d11:   4.0  d12:  10.0
s20: 0.000  s21: 0.000  s22: 0.000
d20:   0.0  d21:   0.0  d22:   0.0
base: 0.00000

            ENERGY CALIBRATION
 6.583305948078E+0000  4.926059809399E-0002  0.000000000000E+0000  0.000000000000E+0000

            FWHM CALIBRATION
 2.288496775628E+0001  1.148914090875E-0003  0.000000000000E+0000

Energy: preliminary linear calibration
FWHM: preliminary linear calibration

  channel  cherr    energy      area aerr%  fwhm chisq it left   n  lim isotope
==============================================================================
 1150.768  0.311    63.271    8182.7   4.1 25.94  1.17  20 1076 124 1877
 1342.309  2.939    72.706     754.4  32.9 24.28  1.08  12 1269 157 1766
 1389.634  2.395    75.037     981.5  31.7 24.33  1.08  12 1269 157 1858
 1575.301  1.222    84.184    2463.5  15.1 26.83  0.83  14 1498 146 2266
 1745.215  0.061    92.554   86098.1   0.5 27.22  1.70  29 1613 315 3201
 1787.229  0.079    94.623   61351.9   0.6 27.26  1.70  29 1613 315 3769
 1864.242  0.046    98.417  112947.9   0.5 27.35  1.70  29 1613 315 3351
 2122.546  0.107   111.141   74548.2   0.8 41.49  3.20  46 2032 237 4776
 2189.712  0.209   114.450   31600.9   1.1 41.57  3.20  46 2032 237 4230
 2785.456  0.565   143.797    4643.8   7.1 26.61  1.07  13 2702 139 1985
 3184.603  1.022   163.459    2951.4  11.3 30.03  0.97  24 3102 152 2170
 3639.913  0.085   185.888   42803.8   1.1 27.05  1.24  19 3551 144 2453
 3974.163  1.857   202.353    1294.0  13.9 27.44  1.05  19 3887 231 1856
 4039.250  0.588   205.559    4255.3   6.9 27.52  1.05  19 3887 231 1895
 5114.527  0.606   258.528    3559.7   7.5 27.18  0.99  11 5023 145 1589
10146.881  8.561   506.425     617.5  30.6 65.58  1.10  17 10053 285 2434
10252.399  1.829   511.623    3050.8  10.4 65.70  1.10  17 10053 285 2523
11432.535  1.398   569.757    1537.4  12.3 38.53  1.17  19 11321 185 1356
14758.691  2.070   733.605     880.8   9.9 41.53  1.12  14 14630 408 1088
14888.479  2.247   739.999     984.2   9.4 41.68  1.12  14 14630 408 1208
14947.820  0.362   742.922    7271.9   2.8 41.75  1.12  14 14630 408 1574
15398.791  0.129   765.137   24672.3   1.2 37.27  1.01  11 15276 225 1567
15656.673  2.092   777.840     664.2  13.1 32.48  1.18  13 15535 245  969
15727.327  0.407   781.321    4212.3   4.5 32.56  1.18  13 15535 245 1189
