

Sample:                                                                 
Filename: C:\Deimos\b1enrchU_2_p3.Chn
File created or changed:   11/7/2022
No.of channels: 16100
Measurement date: 04/Nov/22     12:47
Evaluated : 11/18/2022 10:15:11 AM
Live time: 247457.0 s   Real time: 247631.0 s    Dead time:  0.07 %
Counts total:  11301821    Input counts/sec:     46
            Satellite peaks:
s10: 0.000  s11: 0.000  s12: 0.000
d10:   2.5  d11:   4.0  d12:  10.0
s20: 0.000  s21: 0.000  s22: 0.000
d20:   0.0  d21:   0.0  d22:   0.0
base: 0.00000

            ENERGY CALIBRATION
 6.583305948078E+0000  4.926059809399E-0002  0.000000000000E+0000  0.000000000000E+0000

            FWHM CALIBRATION
 2.288496775628E+0001  1.148914090875E-0003  0.000000000000E+0000

Energy: preliminary linear calibration
FWHM: preliminary linear calibration

  channel  cherr    energy      area aerr%  fwhm chisq it left   n  lim isotope
==============================================================================
  944.681  2.504    53.119    1831.1  26.5 31.74  0.98  43  866 141 3150
 1149.868  0.230    63.226   16550.3   3.0 25.82  1.08  10 1072 129 2760
 1344.904  1.843    72.834    2333.3  12.7 27.44  1.45  11 1269 360 3203
 1388.478  0.963    74.981    4642.6   6.5 27.49  1.45  11 1269 360 3323
 1519.999  0.718    81.459    6728.5   5.2 27.65  1.45  11 1269 360 3707
 1575.076  0.137    84.172   40628.0   1.7 27.71  1.45  11 1269 360 3942
 1692.791  0.184    89.971   32323.6   1.3 28.83  6.58  14 1611 314 4126
 1747.143  0.046    92.649  207979.0   0.3 28.89  6.58  14 1611 314 5397
 1787.338  0.043    94.629  223144.8   0.3 28.94  6.58  14 1611 314 7079
 1864.543  0.025    98.432  390074.2   0.3 29.03  6.58  14 1611 314 6092
 2009.237  0.303   105.560   27475.1   1.6 39.62  3.92  18 1894 372 5220
 2080.046  0.280   109.048   50445.1   1.3 39.70  3.92  18 1894 372 5594
 2122.899  0.069   111.159  248675.0   0.4 39.75  3.92  18 1894 372 8144
 2191.352  0.097   114.531  101614.4   0.6 39.83  3.92  18 1894 372 6347
 2322.491  0.807   120.991    4576.0  10.1 26.35  1.01   9 2242 146 2862
 2787.277  0.059   143.886   94866.8   0.7 26.85  1.03   7 2705 161 3730
 3186.249  0.086   163.540   57538.2   1.0 27.23  0.90   8 3103 156 3341
 3640.979  0.015   185.940  823838.9   0.2 27.78  1.53   8 3557 153 7394
 3828.462  0.369   195.176    9076.9   2.6 27.69  1.19  11 3741 359 2465
 3974.975  0.197   202.393   18128.2   1.5 27.86  1.19  11 3741 359 2510
 4040.082  0.059   205.600   83760.4   0.7 27.94  1.19  11 3741 359 3280
 4366.726  1.442   221.691    2523.1  15.2 31.77  1.03  23 4279 152 2546
 5116.182  0.492   258.609    6787.2   5.4 30.99  1.12   9 5027 145 2221
10255.323  1.026   511.767    5717.6   6.4 57.74  0.94  13 10146 185 2781
11436.276  1.058   569.941    2700.3   8.5 41.12  1.00   9 11326 207 1732
12249.535  2.030   610.003     936.4  19.3 34.61  0.82   9 12140 204 1291
13913.516  2.086   691.971    1054.7  14.5 40.60  1.07  16 13794 389 1317
14070.279  3.145   699.694     712.5  18.8 40.78  1.07  16 13794 389 1329
14133.042  3.196   702.785     718.3  20.4 40.86  1.07  16 13794 389 1349
14761.894  1.589   733.763    1420.0   7.9 41.69  1.06   9 14663 394 1462
14898.142  1.817   740.475    1606.0   7.3 41.85  1.06   9 14663 394 1389
14954.396  0.310   743.246   10847.4   2.3 41.91  1.06   9 14663 394 1824
15410.385  0.113   765.708   36172.2   1.0 39.27  1.09   9 15292 221 2493
15677.127  1.815   778.848    1074.8   9.7 35.75  1.02  23 15549 318 1279
15745.370  0.372   782.210    6321.3   3.3 35.83  1.02  23 15549 318 1561
